#K-Path(1/A) Energy-Level(eV)
# NKPTS & NBANDS: 120  16
# Band-Index    1
   0.00000    -19.513560
   0.03769    -19.509686
   0.07538    -19.498038
   0.11307    -19.478649
   0.15076    -19.451497
   0.18844    -19.416612
   0.22613    -19.373976
   0.26382    -19.323618
   0.30151    -19.265554
   0.33920    -19.199790
   0.37689    -19.126350
   0.41458    -19.045249
   0.45227    -18.956514
   0.48996    -18.860151
   0.52764    -18.756205
   0.56533    -18.644710
   0.60302    -18.525710
   0.64071    -18.399227
   0.67840    -18.265289
   0.71609    -18.123997
   0.75378    -17.975347
   0.79147    -17.819420
   0.82916    -17.656294
   0.86684    -17.486034
   0.90453    -17.308746
   0.94222    -17.124511
   0.97991    -16.933472
   1.01760    -16.735787
   1.05529    -16.531622
   1.09298    -16.321199
   1.13067    -16.104842
   1.16836    -15.882987
   1.20604    -15.656249
   1.24373    -15.425588
   1.28142    -15.192599
   1.31911    -14.960085
   1.35680    -14.733473
   1.39449    -14.524722
   1.43218    -14.361093
   1.46987    -14.294381
   1.46987    -14.294381
   1.49170    -14.293265
   1.51353    -14.289926
   1.53537    -14.284350
   1.55720    -14.276549
   1.57903    -14.266506
   1.60087    -14.254238
   1.62270    -14.239754
   1.64453    -14.223022
   1.66637    -14.204055
   1.68820    -14.182861
   1.71003    -14.159443
   1.73187    -14.133797
   1.75370    -14.105936
   1.77553    -14.075849
   1.79737    -14.043522
   1.81920    -14.008976
   1.84103    -13.972207
   1.86287    -13.933218
   1.88470    -13.892039
   1.90653    -13.848605
   1.92837    -13.802973
   1.95020    -13.755110
   1.97203    -13.705054
   1.99387    -13.652781
   2.01570    -13.598303
   2.03753    -13.541618
   2.05937    -13.482737
   2.08120    -13.421654
   2.10303    -13.358390
   2.12487    -13.292923
   2.14670    -13.225268
   2.16853    -13.155447
   2.19037    -13.083480
   2.21220    -13.009354
   2.23403    -12.933069
   2.25587    -12.854665
   2.27770    -12.774172
   2.29953    -12.691904
   2.32137    -12.610432
   2.32137    -12.610432
   2.36496    -12.776847
   2.40856    -13.015454
   2.45215    -13.281664
   2.49575    -13.563377
   2.53934    -13.852913
   2.58294    -14.145271
   2.62653    -14.437175
   2.67013    -14.726361
   2.71372    -15.011256
   2.75732    -15.290733
   2.80091    -15.563878
   2.84451    -15.830039
   2.88810    -16.088665
   2.93170    -16.339346
   2.97529    -16.581737
   3.01889    -16.815523
   3.06248    -17.040476
   3.10608    -17.256384
   3.14967    -17.463055
   3.19327    -17.660301
   3.23686    -17.848063
   3.28046    -18.026175
   3.32405    -18.194571
   3.36765    -18.353129
   3.41124    -18.501771
   3.45484    -18.640406
   3.49843    -18.768999
   3.54203    -18.887493
   3.58562    -18.995830
   3.62922    -19.093966
   3.67281    -19.181848
   3.71641    -19.259484
   3.76000    -19.326820
   3.80360    -19.383839
   3.84719    -19.430516
   3.89079    -19.466833
   3.93438    -19.492793
   3.97798    -19.508368
   4.02157    -19.513560
 
# Band-Index    2
   4.02157     -7.612297
   3.97798     -7.606094
   3.93438     -7.587487
   3.89079     -7.556485
   3.84719     -7.513124
   3.80360     -7.457435
   3.76000     -7.389461
   3.71641     -7.309254
   3.67281     -7.216883
   3.62922     -7.112444
   3.58562     -6.995996
   3.54203     -6.867674
   3.49843     -6.727596
   3.45484     -6.575903
   3.41124     -6.412752
   3.36765     -6.316796
   3.32405     -6.635735
   3.28046     -6.954110
   3.23686     -7.270846
   3.19327     -7.584952
   3.14967     -7.895636
   3.10608     -8.202132
   3.06248     -8.503845
   3.01889     -8.800276
   2.97529     -9.090881
   2.93170     -9.375348
   2.88810     -9.653298
   2.84451     -9.924437
   2.80091    -10.188499
   2.75732    -10.445216
   2.71372    -10.694401
   2.67013    -10.935910
   2.62653    -11.169543
   2.58294    -11.395171
   2.53934    -11.612674
   2.49575    -11.821996
   2.45215    -12.022900
   2.40856    -12.215161
   2.36496    -12.397845
   2.32137    -12.541797
   2.32137    -12.541797
   2.29953    -12.467546
   2.27770    -12.406939
   2.25587    -12.363358
   2.23403    -12.336581
   2.21220    -12.325266
   2.19037    -12.327352
   2.16853    -12.340486
   2.14670    -12.362392
   2.12487    -12.391057
   2.10303    -12.424728
   2.08120    -12.461983
   2.05937    -12.501749
   2.03753    -12.543107
   2.01570    -12.585341
   1.99387    -12.627892
   1.97203    -12.670305
   1.95020    -12.712216
   1.92837    -12.753324
   1.90653    -12.793377
   1.88470    -12.832224
   1.86287    -12.869643
   1.84103    -12.905566
   1.81920    -12.939838
   1.79737    -12.972372
   1.77553    -13.003084
   1.75370    -13.031883
   1.73187    -13.058754
   1.71003    -13.083610
   1.68820    -13.106447
   1.66637    -13.127190
   1.64453    -13.145813
   1.62270    -13.162313
   1.60087    -13.176613
   1.57903    -13.188770
   1.55720    -13.198743
   1.53537    -13.206493
   1.51353    -13.212046
   1.49170    -13.215387
   1.46987    -13.216499
   1.46987    -13.216499
   1.43218    -13.144091
   1.39449    -12.963175
   1.35680    -12.725560
   1.31911    -12.458584
   1.28142    -12.174290
   1.24373    -11.878211
   1.20604    -11.573338
   1.16836    -11.261421
   1.13067    -10.943560
   1.09298    -10.620701
   1.05529    -10.293455
   1.01760     -9.962514
   0.97991     -9.628385
   0.94222     -9.291700
   0.90453     -8.953090
   0.86684     -8.613057
   0.82916     -8.272366
   0.79147     -7.931700
   0.75378     -7.591816
   0.71609     -7.253567
   0.67840     -6.917875
   0.64071     -6.585743
   0.60302     -6.442218
   0.56533     -6.581958
   0.52764     -6.713218
   0.48996     -6.835871
   0.45227     -6.949820
   0.41458     -7.054934
   0.37689     -7.151145
   0.33920     -7.238390
   0.30151     -7.316605
   0.26382     -7.385732
   0.22613     -7.445734
   0.18844     -7.496569
   0.15076     -7.538198
   0.11307     -7.570604
   0.07538     -7.593760
   0.03769     -7.607668
   0.00000     -7.612297
 
# Band-Index    3
   0.00000     -3.013092
   0.03769     -3.029122
   0.07538     -3.077692
   0.11307     -3.158174
   0.15076     -3.269213
   0.18844     -3.409142
   0.22613     -3.576028
   0.26382     -3.767774
   0.30151     -3.982166
   0.33920     -4.216940
   0.37689     -4.469905
   0.41458     -4.738898
   0.45227     -5.021910
   0.48996     -5.317035
   0.52764     -5.622536
   0.56533     -5.936795
   0.60302     -6.258303
   0.64071     -6.294139
   0.67840     -6.137877
   0.71609     -5.973646
   0.75378     -5.801659
   0.79147     -5.622173
   0.82916     -5.435512
   0.86684     -5.415484
   0.90453     -5.524285
   0.94222     -5.627433
   0.97991     -5.724627
   1.01760     -5.815590
   1.05529     -5.900102
   1.09298     -5.977905
   1.13067     -6.048805
   1.16836     -6.112656
   1.20604     -6.169303
   1.24373     -6.218626
   1.28142     -6.260522
   1.31911     -6.294926
   1.35680     -6.321748
   1.39449     -6.340946
   1.43218     -6.352483
   1.46987     -6.356330
   1.46987     -6.356330
   1.49170     -6.362230
   1.51353     -6.379907
   1.53537     -6.409195
   1.55720     -6.449886
   1.57903     -6.501684
   1.60087     -6.564191
   1.62270     -6.636982
   1.64453     -6.719545
   1.66637     -6.811323
   1.68820     -6.911795
   1.71003     -7.020362
   1.73187     -7.136404
   1.75370     -7.259311
   1.77553     -7.388459
   1.79737     -7.523248
   1.81920     -7.663111
   1.84103     -7.807416
   1.86287     -7.955595
   1.88470     -8.107083
   1.90653     -8.261251
   1.92837     -8.417601
   1.95020     -8.575496
   1.97203     -8.734363
   1.99387     -8.893558
   2.01570     -9.052459
   2.03753     -9.210286
   2.05937     -9.366195
   2.08120     -9.519225
   2.10303     -9.668295
   2.12487     -9.812032
   2.14670     -9.948819
   2.16853    -10.076797
   2.19037    -10.193760
   2.21220    -10.297239
   2.23403    -10.384811
   2.25587    -10.454218
   2.27770    -10.503892
   2.29953    -10.533390
   2.32137    -10.543227
   2.32137    -10.543227
   2.36496    -10.510298
   2.40856    -10.422622
   2.45215    -10.295305
   2.49575    -10.139295
   2.53934     -9.961847
   2.58294     -9.767739
   2.62653     -9.560131
   2.67013     -9.341259
   2.71372     -9.112748
   2.75732     -8.875924
   2.80091     -8.631842
   2.84451     -8.381466
   2.88810     -8.125681
   2.93170     -7.865342
   2.97529     -7.601278
   3.01889     -7.334340
   3.06248     -7.065418
   3.10608     -6.795433
   3.14967     -6.525342
   3.19327     -6.256180
   3.23686     -5.989016
   3.28046     -5.856483
   3.32405     -6.052826
   3.36765     -6.238321
   3.41124     -5.998619
   3.45484     -5.682732
   3.49843     -5.370879
   3.54203     -5.065124
   3.58562     -4.767858
   3.62922     -4.481798
   3.67281     -4.210051
   3.71641     -3.956111
   3.76000     -3.723820
   3.80360     -3.517274
   3.84719     -3.340674
   3.89079     -3.198201
   3.93438     -3.093782
   3.97798     -3.031557
   4.02157     -3.013092
 
# Band-Index    4
   4.02157     -3.000250
   3.97798     -3.014923
   3.93438     -3.051331
   3.89079     -3.108793
   3.84719     -3.187958
   3.80360     -3.288353
   3.76000     -3.409148
   3.71641     -3.549325
   3.67281     -3.707716
   3.62922     -3.883034
   3.58562     -4.073918
   3.54203     -4.278945
   3.49843     -4.496659
   3.45484     -4.725595
   3.41124     -4.964297
   3.36765     -5.211344
   3.32405     -5.465360
   3.28046     -5.725005
   3.23686     -5.649581
   3.19327     -5.432397
   3.14967     -5.205272
   3.10608     -4.968582
   3.06248     -4.722763
   3.01889     -4.468290
   2.97529     -4.205722
   2.93170     -3.935673
   2.88810     -3.658852
   2.84451     -3.376057
   2.80091     -3.088188
   2.75732     -2.796265
   2.71372     -2.501436
   2.67013     -2.204998
   2.62653     -1.908394
   2.58294     -1.613228
   2.53934     -1.321264
   2.49575     -1.034419
   2.45215     -0.754757
   2.40856     -0.484472
   2.36496     -0.226102
   2.32137     -0.006491
   2.32137     -0.006491
   2.29953     -0.121369
   2.27770     -0.236309
   2.25587     -0.348581
   2.23403     -0.458027
   2.21220     -0.564594
   2.19037     -0.668257
   2.16853     -0.768989
   2.14670     -0.866774
   2.12487     -0.961593
   2.10303     -1.053434
   2.08120     -1.142278
   2.05937     -1.228115
   2.03753     -1.310929
   2.01570     -1.390709
   1.99387     -1.467444
   1.97203     -1.541123
   1.95020     -1.611734
   1.92837     -1.679272
   1.90653     -1.743727
   1.88470     -1.805087
   1.86287     -1.863343
   1.84103     -1.918492
   1.81920     -1.970526
   1.79737     -2.019439
   1.77553     -2.065224
   1.75370     -2.107873
   1.73187     -2.147386
   1.71003     -2.183753
   1.68820     -2.216974
   1.66637     -2.247042
   1.64453     -2.273957
   1.62270     -2.297709
   1.60087     -2.318300
   1.57903     -2.335728
   1.55720     -2.349991
   1.53537     -2.361082
   1.51353     -2.369006
   1.49170     -2.373761
   1.46987     -2.375345
   1.46987     -2.375345
   1.43218     -2.400628
   1.39449     -2.474158
   1.35680     -2.589800
   1.31911     -2.739494
   1.28142     -2.915050
   1.24373     -3.109226
   1.20604     -3.316094
   1.16836     -3.530991
   1.13067     -3.750332
   1.09298     -3.971368
   1.05529     -4.191973
   1.01760     -4.410511
   0.97991     -4.625706
   0.94222     -4.836543
   0.90453     -5.042210
   0.86684     -5.242042
   0.82916     -5.301396
   0.79147     -5.182418
   0.75378     -5.059006
   0.71609     -4.931667
   0.67840     -4.800967
   0.64071     -4.667547
   0.60302     -4.532115
   0.56533     -4.395470
   0.52764     -4.258506
   0.48996     -4.122202
   0.45227     -3.987646
   0.41458     -3.856013
   0.37689     -3.728597
   0.33920     -3.606761
   0.30151     -3.491979
   0.26382     -3.385759
   0.22613     -3.289631
   0.18844     -3.205114
   0.15076     -3.133642
   0.11307     -3.076500
   0.07538     -3.034742
   0.03769     -3.009105
   0.00000     -3.000250
 
# Band-Index    5
   0.00000      3.282089
   0.03769      3.287348
   0.07538      3.303126
   0.11307      3.329424
   0.15076      3.366244
   0.18844      3.413589
   0.22613      3.471460
   0.26382      3.539858
   0.30151      3.618782
   0.33920      3.708230
   0.37689      3.808197
   0.41458      3.918678
   0.45227      4.039663
   0.48996      4.171144
   0.52764      4.313106
   0.56533      4.465535
   0.60302      4.628411
   0.64071      4.801714
   0.67840      4.985417
   0.71609      5.179486
   0.75378      5.383877
   0.79147      5.598537
   0.82916      5.823386
   0.86684      5.977895
   0.90453      5.632034
   0.94222      5.279667
   0.97991      4.926822
   1.01760      4.576417
   1.05529      4.230672
   1.09298      3.891730
   1.13067      3.561903
   1.16836      3.243867
   1.20604      2.940846
   1.24373      2.656833
   1.28142      2.396826
   1.31911      2.167036
   1.35680      1.974932
   1.39449      1.828876
   1.43218      1.737049
   1.46987      1.705657
   1.46987      1.705657
   1.49170      1.705315
   1.51353      1.704281
   1.53537      1.702534
   1.55720      1.700035
   1.57903      1.696732
   1.60087      1.692557
   1.62270      1.687426
   1.64453      1.681244
   1.66637      1.673895
   1.68820      1.665254
   1.71003      1.655178
   1.73187      1.643513
   1.75370      1.630088
   1.77553      1.614723
   1.79737      1.597223
   1.81920      1.577385
   1.84103      1.554996
   1.86287      1.529834
   1.88470      1.501674
   1.90653      1.470288
   1.92837      1.435448
   1.95020      1.396927
   1.97203      1.354508
   1.99387      1.307982
   2.01570      1.257152
   2.03753      1.201841
   2.05937      1.141893
   2.08120      1.077176
   2.10303      1.007585
   2.12487      0.933047
   2.14670      0.853522
   2.16853      0.769002
   2.19037      0.679514
   2.21220      0.585123
   2.23403      0.485927
   2.25587      0.382064
   2.27770      0.273720
   2.29953      0.161215
   2.32137      0.047462
   2.32137      0.047462
   2.36496      0.265258
   2.40856      0.519350
   2.45215      0.784788
   2.49575      1.060964
   2.53934      1.347542
   2.58294      1.644216
   2.62653      1.950664
   2.67013      2.266532
   2.71372      2.591435
   2.75732      2.924945
   2.80091      3.266593
   2.84451      3.615851
   2.88810      3.972139
   2.93170      4.334810
   2.97529      4.703143
   3.01889      5.076338
   3.06248      5.453510
   3.10608      5.833670
   3.14967      6.095605
   3.19327      5.822078
   3.23686      5.562337
   3.28046      5.316444
   3.32405      5.084450
   3.36765      4.866399
   3.41124      4.662326
   3.45484      4.472261
   3.49843      4.296229
   3.54203      4.134251
   3.58562      3.986340
   3.62922      3.852509
   3.67281      3.732767
   3.71641      3.627117
   3.76000      3.535560
   3.80360      3.458098
   3.84719      3.394727
   3.89079      3.345445
   3.93438      3.310246
   3.97798      3.289128
   4.02157      3.282089
 
# Band-Index    6
   4.02157      4.081105
   3.97798      4.088239
   3.93438      4.109639
   3.89079      4.145303
   3.84719      4.195226
   3.80360      4.259400
   3.76000      4.337815
   3.71641      4.430460
   3.67281      4.537318
   3.62922      4.658370
   3.58562      4.793594
   3.54203      4.942960
   3.49843      5.106435
   3.45484      5.283977
   3.41124      5.475535
   3.36765      5.681045
   3.32405      5.900428
   3.28046      6.133583
   3.23686      6.380362
   3.19327      6.597316
   3.14967      6.215701
   3.10608      6.382843
   3.06248      6.683700
   3.01889      6.998067
   2.97529      7.325805
   2.93170      7.666739
   2.88810      8.020649
   2.84451      8.387246
   2.80091      8.766151
   2.75732      9.156851
   2.71372      9.558638
   2.67013      9.970499
   2.62653     10.390942
   2.58294     10.751820
   2.53934     10.781038
   2.49575     10.762307
   2.45215     10.723513
   2.40856     10.683559
   2.36496     10.654376
   2.32137     10.643476
   2.32137     10.643476
   2.29953     10.646514
   2.27770     10.655778
   2.25587     10.671527
   2.23403     10.693915
   2.21220     10.722995
   2.19037     10.758717
   2.16853     10.800932
   2.14670     10.849382
   2.12487     10.903702
   2.10303     10.963415
   2.08120     11.027931
   2.05937     11.096532
   2.03753     11.168392
   2.01570     11.242564
   1.99387     11.098836
   1.97203     10.866617
   1.95020     10.634806
   1.92837     10.404756
   1.90653     10.177621
   1.88470      9.954417
   1.86287      9.736101
   1.84103      9.523530
   1.81920      9.317540
   1.79737      9.118935
   1.77553      8.928486
   1.75370      8.746961
   1.73187      8.575106
   1.71003      8.413648
   1.68820      8.263308
   1.66637      8.124782
   1.64453      7.998736
   1.62270      7.885813
   1.60087      7.786614
   1.57903      7.701670
   1.55720      7.631467
   1.53537      7.576419
   1.51353      7.536855
   1.49170      7.513019
   1.46987      7.505056
   1.46987      7.505056
   1.43218      7.506942
   1.39449      7.512598
   1.35680      7.521955
   1.31911      7.534885
   1.28142      7.551176
   1.24373      7.570405
   1.20604      7.591749
   1.16836      7.613055
   1.13067      7.625930
   1.09298      7.575545
   1.05529      7.359664
   1.01760      7.090666
   0.97991      6.820649
   0.94222      6.557474
   0.90453      6.303118
   0.86684      6.058309
   0.82916      6.288421
   0.79147      6.355030
   0.75378      6.184145
   0.71609      5.989235
   0.67840      5.797926
   0.64071      5.614726
   0.60302      5.440961
   0.56533      5.277163
   0.52764      5.123591
   0.48996      4.980388
   0.45227      4.847640
   0.41458      4.725404
   0.37689      4.613721
   0.33920      4.512617
   0.30151      4.422116
   0.26382      4.342232
   0.22613      4.272978
   0.18844      4.214364
   0.15076      4.166398
   0.11307      4.129085
   0.07538      4.102431
   0.03769      4.086437
   0.00000      4.081105
 
# Band-Index    7
   0.00000      4.443618
   0.03769      4.449013
   0.07538      4.465197
   0.11307      4.492171
   0.15076      4.529936
   0.18844      4.578491
   0.22613      4.637838
   0.26382      4.707976
   0.30151      4.788905
   0.33920      4.880626
   0.37689      4.983138
   0.41458      5.096441
   0.45227      5.220533
   0.48996      5.355413
   0.52764      5.501079
   0.56533      5.657529
   0.60302      5.824759
   0.64071      6.002763
   0.67840      6.191535
   0.71609      6.391063
   0.75378      6.601325
   0.79147      6.797971
   0.82916      6.740894
   0.86684      6.933560
   0.90453      7.170389
   0.94222      7.424403
   0.97991      7.691130
   1.01760      7.798582
   1.05529      7.777678
   1.09298      7.821801
   1.13067      8.043935
   1.16836      8.342106
   1.20604      8.661640
   1.24373      8.994185
   1.28142      9.337554
   1.31911      9.690785
   1.35680     10.053192
   1.39449     10.423906
   1.43218     10.800471
   1.46987     11.117228
   1.46987     11.117228
   1.49170     11.118756
   1.51353     11.123337
   1.53537     11.130968
   1.55720     11.141642
   1.57903     11.155348
   1.60087     11.172076
   1.62270     11.191809
   1.64453     11.214529
   1.66637     11.240214
   1.68820     11.268837
   1.71003     11.300368
   1.73187     11.334771
   1.75370     11.372008
   1.77553     11.412030
   1.79737     11.454785
   1.81920     11.500214
   1.84103     11.548248
   1.86287     11.598813
   1.88470     11.651813
   1.90653     11.608621
   1.92837     11.540071
   1.95020     11.467969
   1.97203     11.393531
   1.99387     11.317995
   2.01570     11.329778
   2.03753     11.557342
   2.05937     11.778613
   2.08120     11.989359
   2.10303     12.182892
   2.12487     12.338094
   2.14670     12.417674
   2.16853     12.486344
   2.19037     12.552741
   2.21220     12.616888
   2.23403     12.678262
   2.25587     12.736210
   2.27770     12.789970
   2.29953     12.838585
   2.32137     12.880028
   2.32137     12.880028
   2.36496     12.755033
   2.40856     12.458915
   2.45215     12.083980
   2.49575     11.672894
   2.53934     11.247074
   2.58294     10.817688
   2.62653     10.643578
   2.67013     10.442891
   2.71372     10.167166
   2.75732      9.846603
   2.80091      9.504903
   2.84451      9.156344
   2.88810      8.808982
   2.93170      8.467425
   2.97529      8.134419
   3.01889      7.811673
   3.06248      7.500297
   3.10608      7.201045
   3.14967      6.914457
   3.19327      6.641983
   3.23686      6.782758
   3.28046      6.530084
   3.32405      6.291839
   3.36765      6.068027
   3.41124      5.858651
   3.45484      5.663712
   3.49843      5.483213
   3.54203      5.317155
   3.58562      5.165539
   3.62922      5.028364
   3.67281      4.905632
   3.71641      4.797341
   3.76000      4.703492
   3.80360      4.624083
   3.84719      4.559114
   3.89079      4.508584
   3.93438      4.472491
   3.97798      4.450836
   4.02157      4.443618
 
# Band-Index    8
   4.02157      5.354063
   3.97798      5.361219
   3.93438      5.382685
   3.89079      5.418459
   3.84719      5.468537
   3.80360      5.532913
   3.76000      5.611580
   3.71641      5.704529
   3.67281      5.811747
   3.62922      5.933220
   3.58562      6.068930
   3.54203      6.218854
   3.49843      6.382966
   3.45484      6.561233
   3.41124      6.753615
   3.36765      6.960060
   3.32405      7.180490
   3.28046      7.360049
   3.23686      6.980687
   3.19327      7.049857
   3.14967      7.331375
   3.10608      7.627307
   3.06248      7.937643
   3.01889      8.262374
   2.97529      8.601486
   2.93170      8.954964
   2.88810      9.322785
   2.84451      9.704919
   2.80091     10.101326
   2.75732     10.511947
   2.71372     10.936690
   2.67013     11.375407
   2.62653     11.827821
   2.58294     12.293298
   2.53934     12.769391
   2.49575     13.041443
   2.45215     13.054490
   2.40856     13.039305
   2.36496     12.999398
   2.32137     12.970224
   2.32137     12.970224
   2.29953     12.986072
   2.27770     12.970318
   2.25587     12.930679
   2.23403     12.873666
   2.21220     12.802978
   2.19037     12.719607
   2.16853     12.621790
   2.14670     12.505082
   2.12487     12.372401
   2.10303     12.287035
   2.08120     12.216893
   2.05937     12.148282
   2.03753     12.080725
   2.01570     12.014355
   1.99387     11.949374
   1.97203     11.885989
   1.95020     11.824383
   1.92837     11.764722
   1.90653     11.707157
   1.88470     11.672500
   1.86287     11.730750
   1.84103     11.742590
   1.81920     11.690030
   1.79737     11.640502
   1.77553     11.594032
   1.75370     11.550650
   1.73187     11.510381
   1.71003     11.473249
   1.68820     11.439275
   1.66637     11.408482
   1.64453     11.380885
   1.62270     11.356501
   1.60087     11.335342
   1.57903     11.317419
   1.55720     11.302743
   1.53537     11.291320
   1.51353     11.283156
   1.49170     11.278256
   1.46987     11.276622
   1.46987     11.276622
   1.43218     11.600372
   1.39449     11.297970
   1.35680     10.925426
   1.31911     10.560022
   1.28142     10.202918
   1.24373      9.854712
   1.20604      9.515792
   1.16836      9.186447
   1.13067      8.866911
   1.09298      8.557385
   1.05529      8.258076
   1.01760      7.969216
   0.97991      7.829901
   0.94222      7.794024
   0.90453      7.547160
   0.86684      7.295809
   0.82916      7.053857
   0.79147      6.822284
   0.75378      7.086942
   0.71609      7.229311
   0.67840      7.070894
   0.64071      6.891382
   0.60302      6.718094
   0.56533      6.554050
   0.52764      6.400038
   0.48996      6.256356
   0.45227      6.123145
   0.41458      6.000481
   0.37689      5.888411
   0.33920      5.786963
   0.30151      5.696159
   0.26382      5.616013
   0.22613      5.546536
   0.18844      5.487736
   0.15076      5.439619
   0.11307      5.402191
   0.07538      5.375454
   0.03769      5.359411
   0.00000      5.354063
 
# Band-Index    9
   0.00000      5.812810
   0.03769      5.818138
   0.07538      5.834125
   0.11307      5.860772
   0.15076      5.898081
   0.18844      5.946053
   0.22613      6.004690
   0.26382      6.073992
   0.30151      6.153957
   0.33920      6.244578
   0.37689      6.345847
   0.41458      6.457750
   0.45227      6.580263
   0.48996      6.713352
   0.52764      6.856964
   0.56533      7.011006
   0.60302      7.175315
   0.64071      7.349555
   0.67840      7.532922
   0.71609      7.511806
   0.75378      7.525668
   0.79147      7.726538
   0.82916      7.950748
   0.86684      7.964341
   0.90453      7.924388
   0.94222      7.899648
   0.97991      8.098794
   1.01760      8.380761
   1.05529      8.676253
   1.09298      8.983113
   1.13067      9.300957
   1.16836      9.629658
   1.20604      9.969157
   1.24373     10.319418
   1.28142     10.680407
   1.31911     11.052085
   1.35680     11.434355
   1.39449     11.825777
   1.43218     11.673872
   1.46987     11.976090
   1.46987     11.976090
   1.49170     11.976286
   1.51353     11.976839
   1.53537     11.977651
   1.55720     11.978544
   1.57903     11.979275
   1.60087     11.979516
   1.62270     11.978855
   1.64453     11.976798
   1.66637     11.972753
   1.68820     11.966035
   1.71003     11.955913
   1.73187     11.941598
   1.75370     11.922295
   1.77553     11.897261
   1.79737     11.865880
   1.81920     11.827726
   1.84103     11.782638
   1.86287     11.798154
   1.88470     11.856692
   1.90653     11.918188
   1.92837     11.982635
   1.95020     12.050053
   1.97203     12.120504
   1.99387     12.194134
   2.01570     12.271237
   2.03753     12.352382
   2.05937     12.438653
   2.08120     12.532044
   2.10303     12.635885
   2.12487     12.754268
   2.14670     12.888288
   2.16853     13.031524
   2.19037     13.172274
   2.21220     13.299074
   2.23403     13.402731
   2.25587     13.476917
   2.27770     13.519286
   2.29953     13.533338
   2.32137     13.529015
   2.32137     13.529015
   2.36496     13.523351
   2.40856     13.506282
   2.45215     13.454658
   2.49575     13.178912
   2.53934     12.774418
   2.58294     12.414901
   2.62653     12.102846
   2.67013     11.813387
   2.71372     11.508125
   2.75732     11.175032
   2.80091     10.824610
   2.84451     10.468858
   2.88810     10.115477
   2.93170      9.768904
   2.97529      9.431713
   3.01889      9.105458
   3.06248      8.791119
   3.10608      8.489343
   3.14967      8.200570
   3.19327      7.925114
   3.23686      7.663210
   3.28046      7.415537
   3.32405      7.640435
   3.36765      7.419103
   3.41124      7.212024
   3.45484      7.019213
   3.49843      6.840683
   3.54203      6.676440
   3.58562      6.526491
   3.62922      6.390836
   3.67281      6.269477
   3.71641      6.162412
   3.76000      6.069636
   3.80360      5.991146
   3.84719      5.926936
   3.89079      5.877002
   3.93438      5.841338
   3.97798      5.819942
   4.02157      5.812810
 
# Band-Index   10
   4.02157      7.483981
   3.97798      7.491066
   3.93438      7.512319
   3.89079      7.547734
   3.84719      7.597303
   3.80360      7.661013
   3.76000      7.738847
   3.71641      7.830783
   3.67281      7.936794
   3.62922      8.056843
   3.58562      8.190889
   3.54203      8.338874
   3.49843      8.500721
   3.45484      8.676173
   3.41124      8.470582
   3.36765      8.107475
   3.32405      7.736870
   3.28046      7.875999
   3.23686      8.125769
   3.19327      8.389711
   3.14967      8.667781
   3.10608      8.959922
   3.06248      9.266058
   3.01889      9.586085
   2.97529      9.919856
   2.93170     10.267151
   2.88810     10.627621
   2.84451     11.000654
   2.80091     11.385042
   2.75732     11.777879
   2.71372     12.170133
   2.67013     12.527787
   2.62653     12.785406
   2.58294     12.929987
   2.53934     13.005049
   2.49575     13.243975
   2.45215     13.615998
   2.40856     14.072059
   2.36496     14.526394
   2.32137     14.885265
   2.32137     14.885265
   2.29953     14.750851
   2.27770     14.617408
   2.25587     14.487347
   2.23403     14.360762
   2.21220     14.237687
   2.19037     14.118132
   2.16853     14.002104
   2.14670     13.889609
   2.12487     13.780652
   2.10303     13.675238
   2.08120     13.573371
   2.05937     13.475055
   2.03753     13.380291
   2.01570     13.289084
   1.99387     13.201436
   1.97203     13.117349
   1.95020     13.036827
   1.92837     12.959868
   1.90653     12.886477
   1.88470     12.816655
   1.86287     12.750405
   1.84103     12.687725
   1.81920     12.628619
   1.79737     12.573088
   1.77553     12.521133
   1.75370     12.472756
   1.73187     12.427957
   1.71003     12.386735
   1.68820     12.349093
   1.66637     12.315033
   1.64453     12.284553
   1.62270     12.257657
   1.60087     12.234344
   1.57903     12.214615
   1.55720     12.198472
   1.53537     12.185915
   1.51353     12.176945
   1.49170     12.171563
   1.46987     12.169770
   1.46987     12.169770
   1.43218     12.232093
   1.39449     12.000876
   1.35680     12.228393
   1.31911     11.861565
   1.28142     11.501520
   1.24373     11.150224
   1.20604     10.808336
   1.16836     10.476195
   1.13067     10.154012
   1.09298      9.841937
   1.05529      9.540091
   1.01760      9.248577
   0.97991      8.967494
   0.94222      8.696950
   0.90453      8.437094
   0.86684      8.188176
   0.82916      8.001103
   0.79147      8.011876
   0.75378      7.907217
   0.71609      7.722899
   0.67840      7.809937
   0.64071      8.133602
   0.60302      8.301566
   0.56533      8.334233
   0.52764      8.361779
   0.48996      8.373450
   0.45227      8.243362
   0.41458      8.122790
   0.37689      8.012317
   0.33920      7.912165
   0.30151      7.822439
   0.26382      7.743197
   0.22613      7.674474
   0.18844      7.616294
   0.15076      7.568675
   0.11307      7.531627
   0.07538      7.505159
   0.03769      7.489276
   0.00000      7.483981
 
# Band-Index   11
   0.00000      8.095464
   0.03769      8.100153
   0.07538      8.114186
   0.11307      8.137429
   0.15076      8.169530
   0.18844      8.209649
   0.22613      8.255917
   0.26382      8.304342
   0.30151      8.347923
   0.33920      8.379465
   0.37689      8.396882
   0.41458      8.401974
   0.45227      8.396839
   0.48996      8.383034
   0.52764      8.510695
   0.56533      8.628670
   0.60302      8.447173
   0.64071      8.265120
   0.67840      8.226654
   0.71609      8.189568
   0.75378      8.167015
   0.79147      8.233804
   0.82916      8.426511
   0.86684      8.656639
   0.90453      8.903046
   0.94222      9.162001
   0.97991      9.432412
   1.01760      9.713842
   1.05529     10.006067
   1.09298     10.308951
   1.13067     10.622394
   1.16836     10.946303
   1.20604     11.280583
   1.24373     11.625106
   1.28142     11.979627
   1.31911     12.342909
   1.35680     12.402527
   1.39449     12.584429
   1.43218     12.469698
   1.46987     12.641180
   1.46987     12.641180
   1.49170     12.642945
   1.51353     12.648238
   1.53537     12.657064
   1.55720     12.669426
   1.57903     12.685328
   1.60087     12.704774
   1.62270     12.727768
   1.64453     12.754314
   1.66637     12.784414
   1.68820     12.818068
   1.71003     12.855278
   1.73187     12.896041
   1.75370     12.940357
   1.77553     12.988223
   1.79737     13.039634
   1.81920     13.094585
   1.84103     13.153070
   1.86287     13.215082
   1.88470     13.280608
   1.90653     13.349640
   1.92837     13.422162
   1.95020     13.498156
   1.97203     13.577601
   1.99387     13.660472
   2.01570     13.746734
   2.03753     13.836348
   2.05937     13.929261
   2.08120     14.025406
   2.10303     14.124693
   2.12487     14.227006
   2.14670     14.332188
   2.16853     14.440023
   2.19037     14.550218
   2.21220     14.662372
   2.23403     14.775935
   2.25587     14.890174
   2.27770     14.980545
   2.29953     15.002269
   2.32137     14.930329
   2.32137     14.930328
   2.36496     14.810264
   2.40856     14.298478
   2.45215     13.792413
   2.49575     13.413641
   2.53934     13.265145
   2.58294     13.106882
   2.62653     12.955978
   2.67013     12.759565
   2.71372     12.485115
   2.75732     12.229369
   2.80091     11.978603
   2.84451     11.729914
   2.88810     11.484067
   2.93170     11.242418
   2.97529     11.006290
   3.01889     10.776865
   3.06248     10.555098
   3.10608     10.341824
   3.14967     10.137712
   3.19327      9.943320
   3.23686      9.756834
   3.28046      9.514520
   3.32405      9.285064
   3.36765      9.068775
   3.41124      8.865918
   3.45484      8.824566
   3.49843      8.876090
   3.54203      8.764521
   3.58562      8.661388
   3.62922      8.565581
   3.67281      8.476287
   3.71641      8.393529
   3.76000      8.318366
   3.80360      8.252320
   3.84719      8.196797
   3.89079      8.152820
   3.93438      8.121050
   3.97798      8.101873
   4.02157      8.095464
 
# Band-Index   12
   4.02157      8.309410
   3.97798      8.322650
   3.93438      8.352568
   3.89079      8.385175
   3.84719      8.421102
   3.80360      8.464803
   3.76000      8.519399
   3.71641      8.587461
   3.67281      8.671349
   3.62922      8.772742
   3.58562      8.892224
   3.54203      9.029375
   3.49843      9.166163
   3.45484      8.997073
   3.41124      9.128151
   3.36765      9.269761
   3.32405      9.422114
   3.28046      9.585253
   3.23686      9.759057
   3.19327     10.011584
   3.14967     10.278180
   3.10608     10.555768
   3.06248     10.843056
   3.01889     11.138025
   2.97529     11.437357
   2.93170     11.735390
   2.88810     12.022171
   2.84451     12.280853
   2.80091     12.488819
   2.75732     12.635780
   2.71372     12.753988
   2.67013     12.890173
   2.62653     13.155700
   2.58294     13.489030
   2.53934     13.883592
   2.49575     14.315685
   2.45215     14.767890
   2.40856     15.214930
   2.36496     15.189619
   2.32137     15.224558
   2.32137     15.224558
   2.29953     15.116539
   2.27770     15.004126
   2.25587     14.908702
   2.23403     14.817728
   2.21220     14.720067
   2.19037     14.603319
   2.16853     14.488833
   2.14670     14.377391
   2.12487     14.269155
   2.10303     14.164223
   2.08120     14.062657
   2.05937     13.964497
   2.03753     13.869772
   2.01570     13.778505
   1.99387     13.690713
   1.97203     13.606414
   1.95020     13.525621
   1.92837     13.448346
   1.90653     13.374599
   1.88470     13.304390
   1.86287     13.237726
   1.84103     13.174617
   1.81920     13.115068
   1.79737     13.059086
   1.77553     13.006677
   1.75370     12.957846
   1.73187     12.912598
   1.71003     12.870938
   1.68820     12.832871
   1.66637     12.798403
   1.64453     12.767539
   1.62270     12.740284
   1.60087     12.716644
   1.57903     12.696625
   1.55720     12.680234
   1.53537     12.667477
   1.51353     12.658360
   1.49170     12.652888
   1.46987     12.651063
   1.46987     12.651063
   1.43218     13.017473
   1.39449     12.910441
   1.35680     12.724908
   1.31911     12.820023
   1.28142     13.230274
   1.24373     13.139059
   1.20604     12.820644
   1.16836     12.504970
   1.13067     12.195616
   1.09298     11.894027
   1.05529     11.600981
   1.01760     11.316958
   0.97991     11.042284
   0.94222     10.777203
   0.90453     10.521904
   0.86684     10.276545
   0.82916     10.041258
   0.79147      9.816172
   0.75378      9.601427
   0.71609      9.397219
   0.67840      9.203917
   0.64071      9.022574
   0.60302      8.858913
   0.56533      8.830080
   0.52764      9.101110
   0.48996      9.017138
   0.45227      8.889065
   0.41458      8.773481
   0.37689      8.671710
   0.33920      8.585984
   0.30151      8.518659
   0.26382      8.468642
   0.22613      8.430144
   0.18844      8.397884
   0.15076      8.369780
   0.11307      8.345775
   0.07538      8.326756
   0.03769      8.314015
   0.00000      8.309410
 
# Band-Index   13
   0.00000      8.406807
   0.03769      8.422976
   0.07538      8.472117
   0.11307      8.554672
   0.15076      8.669974
   0.18844      8.816720
   0.22613      8.993389
   0.26382      9.198327
   0.30151      9.429825
   0.33920      9.686149
   0.37689      9.965553
   0.41458      9.933384
   0.45227      9.668721
   0.48996      9.389987
   0.52764      9.156968
   0.56533      9.308141
   0.60302      9.470405
   0.64071      9.643601
   0.67840      9.827614
   0.71609     10.022362
   0.75378     10.227779
   0.79147     10.443809
   0.82916     10.670401
   0.86684     10.907507
   0.90453     11.155077
   0.94222     11.413059
   0.97991     11.681395
   1.01760     11.960018
   1.05529     12.248847
   1.09298     12.547781
   1.13067     12.856669
   1.16836     13.175221
   1.20604     13.502216
   1.24373     13.634883
   1.28142     13.445235
   1.31911     13.580326
   1.35680     13.276288
   1.39449     13.106556
   1.43218     13.070820
   1.46987     13.326257
   1.46987     13.326257
   1.49170     13.327059
   1.51353     13.329453
   1.53537     13.333410
   1.55720     13.338879
   1.57903     13.345796
   1.60087     13.354082
   1.62270     13.363658
   1.64453     13.374449
   1.66637     13.386399
   1.68820     13.399487
   1.71003     13.413764
   1.73187     13.429356
   1.75370     13.446490
   1.77553     13.465502
   1.79737     13.486836
   1.81920     13.511012
   1.84103     13.538591
   1.86287     13.570119
   1.88470     13.606081
   1.90653     13.646865
   1.92837     13.692743
   1.95020     13.743867
   1.97203     13.800288
   1.99387     13.861965
   2.01570     13.928795
   2.03753     14.000620
   2.05937     14.077246
   2.08120     14.158441
   2.10303     14.243938
   2.12487     14.333415
   2.14670     14.426469
   2.16853     14.522554
   2.19037     14.620862
   2.21220     14.720575
   2.23403     14.840145
   2.25587     14.961272
   2.27770     15.082609
   2.29953     15.200930
   2.32137     15.283593
   2.32137     15.283586
   2.36496     15.433812
   2.40856     15.300918
   2.45215     14.922193
   2.49575     14.483444
   2.53934     14.032552
   2.58294     13.588469
   2.62653     13.171485
   2.67013     12.910553
   2.71372     12.774860
   2.75732     12.671852
   2.80091     12.567491
   2.84451     12.460657
   2.88810     12.351457
   2.93170     12.240135
   2.97529     12.126083
   3.01889     11.865661
   3.06248     11.550824
   3.10608     11.249596
   3.14967     10.962323
   3.19327     10.689151
   3.23686     10.430198
   3.28046     10.185576
   3.32405      9.955412
   3.36765      9.739861
   3.41124      9.539128
   3.45484      9.353501
   3.49843      9.183388
   3.54203      9.493792
   3.58562      9.804793
   3.62922      9.765218
   3.67281      9.533168
   3.71641      9.303891
   3.76000      9.084786
   3.80360      8.883652
   3.84719      8.708495
   3.89079      8.567622
   3.93438      8.470138
   3.97798      8.420397
   4.02157      8.406807
 
# Band-Index   14
   4.02157     10.429594
   3.97798     10.436559
   3.93438     10.457450
   3.89079     10.492256
   3.84719     10.540952
   3.80360     10.603504
   3.76000     10.679812
   3.71641     10.612152
   3.67281     10.366568
   3.62922     10.096561
   3.58562      9.993598
   3.54203     10.213181
   3.49843     10.420544
   3.45484     10.614028
   3.41124     10.793490
   3.36765     10.959875
   3.32405     11.114754
   3.28046     11.259957
   3.23686     11.397234
   3.19327     11.528241
   3.14967     11.654309
   3.10608     11.776581
   3.06248     11.895922
   3.01889     12.013136
   2.97529     12.196501
   2.93170     12.537912
   2.88810     12.893445
   2.84451     13.261951
   2.80091     13.642860
   2.75732     14.035396
   2.71372     14.399531
   2.67013     14.709090
   2.62653     15.068703
   2.58294     15.456804
   2.53934     15.851002
   2.49575     16.062899
   2.45215     15.798646
   2.40856     15.488772
   2.36496     15.519502
   2.32137     15.384318
   2.32137     15.384319
   2.29953     15.545814
   2.27770     15.598018
   2.25587     15.538312
   2.23403     15.480042
   2.21220     15.422547
   2.19037     15.364445
   2.16853     15.304900
   2.14670     15.226789
   2.12487     15.117160
   2.10303     15.011093
   2.08120     14.908607
   2.05937     14.809698
   2.03753     14.714372
   2.01570     14.622630
   1.99387     14.534475
   1.97203     14.449907
   1.95020     14.368930
   1.92837     14.291541
   1.90653     14.217744
   1.88470     14.147540
   1.86287     14.080930
   1.84103     14.017913
   1.81920     13.958492
   1.79737     13.902667
   1.77553     13.850439
   1.75370     13.801808
   1.73187     13.756775
   1.71003     13.715340
   1.68820     13.677503
   1.66637     13.643268
   1.64453     13.612632
   1.62270     13.585598
   1.60087     13.562167
   1.57903     13.542338
   1.55720     13.526114
   1.53537     13.513494
   1.51353     13.504479
   1.49170     13.499070
   1.46987     13.497267
   1.46987     13.497267
   1.43218     13.500603
   1.39449     13.506462
   1.35680     13.951976
   1.31911     13.971448
   1.28142     14.175375
   1.24373     13.852238
   1.20604     14.052209
   1.16836     14.443992
   1.13067     14.815381
   1.09298     14.613962
   1.05529     14.364845
   1.01760     14.111258
   0.97991     13.859522
   0.94222     13.612588
   0.90453     13.372085
   0.86684     13.139026
   0.82916     12.914090
   0.79147     12.697762
   0.75378     12.490398
   0.71609     12.292278
   0.67840     12.103614
   0.64071     11.924577
   0.60302     11.755310
   0.56533     11.595927
   0.52764     11.280520
   0.48996     10.925410
   0.45227     10.586817
   0.41458     10.266337
   0.37689     10.181904
   0.33920     10.412448
   0.30151     10.622284
   0.26382     10.682410
   0.22613     10.616438
   0.18844     10.559525
   0.15076     10.512805
   0.11307     10.476418
   0.07538     10.450410
   0.03769     10.434798
   0.00000     10.429594
 
# Band-Index   15
   0.00000     11.229253
   0.03769     11.234621
   0.07538     11.250720
   0.11307     11.277537
   0.15076     11.249861
   0.18844     11.129610
   0.22613     10.984902
   0.26382     10.818003
   0.30151     10.765375
   0.33920     10.852013
   0.37689     10.950267
   0.41458     11.058977
   0.45227     11.177976
   0.48996     11.307183
   0.52764     11.446524
   0.56533     11.650624
   0.60302     12.034278
   0.64071     12.430046
   0.67840     12.836512
   0.71609     13.135295
   0.75378     13.339328
   0.79147     13.553568
   0.82916     13.777957
   0.86684     14.012422
   0.90453     14.256852
   0.94222     14.511075
   0.97991     14.774730
   1.01760     15.046599
   1.05529     15.309316
   1.09298     15.149914
   1.13067     14.840809
   1.16836     14.977092
   1.20604     14.856616
   1.24373     14.536374
   1.28142     14.193347
   1.31911     14.407240
   1.35680     14.187074
   1.39449     14.184940
   1.43218     13.816653
   1.46987     13.885504
   1.46987     13.885504
   1.49170     13.887141
   1.51353     13.892050
   1.53537     13.900228
   1.55720     13.911669
   1.57903     13.926366
   1.60087     13.944305
   1.62270     13.965474
   1.64453     13.989855
   1.66637     14.017427
   1.68820     14.048162
   1.71003     14.082029
   1.73187     14.118990
   1.75370     14.159001
   1.77553     14.202007
   1.79737     14.247943
   1.81920     14.296737
   1.84103     14.348295
   1.86287     14.402519
   1.88470     14.459265
   1.90653     14.518396
   1.92837     14.579723
   1.95020     14.643037
   1.97203     14.708072
   1.99387     14.774561
   2.01570     14.842045
   2.03753     14.910207
   2.05937     14.978542
   2.08120     15.046536
   2.10303     15.113639
   2.12487     15.179267
   2.14670     15.243084
   2.16853     15.340005
   2.19037     15.456745
   2.21220     15.576968
   2.23403     15.700610
   2.25587     15.783406
   2.27770     15.693113
   2.29953     15.586397
   2.32137     15.538256
   2.32137     15.538265
   2.36496     15.538867
   2.40856     15.660618
   2.45215     15.855729
   2.49575     16.118815
   2.53934     16.039855
   2.58294     15.675617
   2.62653     15.265358
   2.67013     14.849676
   2.71372     14.438355
   2.75732     14.168319
   2.80091     14.039926
   2.84451     14.005026
   2.88810     14.012345
   2.93170     13.997209
   2.97529     13.915135
   3.01889     13.762209
   3.06248     13.560694
   3.10608     13.333675
   3.14967     13.096493
   3.19327     12.858192
   3.23686     12.624059
   3.28046     12.397279
   3.32405     12.179851
   3.36765     11.973086
   3.41124     11.777863
   3.45484     11.594803
   3.49843     11.424348
   3.54203     11.266823
   3.58562     11.122474
   3.62922     10.991488
   3.67281     10.874020
   3.71641     10.770237
   3.76000     10.831238
   3.80360     11.020786
   3.84719     11.179111
   3.89079     11.293836
   3.93438     11.257969
   3.97798     11.236434
   4.02157     11.229253
 
# Band-Index   16
   4.02157     11.467836
   3.97798     11.449519
   3.93438     11.394765
   3.89079     11.304266
   3.84719     11.343999
   3.80360     11.408416
   3.76000     11.487035
   3.71641     11.579805
   3.67281     11.686673
   3.62922     11.807590
   3.58562     11.942509
   3.54203     12.091388
   3.49843     12.254187
   3.45484     12.430865
   3.41124     12.621384
   3.36765     12.825703
   3.32405     13.043775
   3.28046     13.275545
   3.23686     13.520945
   3.19327     13.779892
   3.14967     14.052276
   3.10608     14.337954
   3.06248     14.636736
   3.01889     14.948366
   2.97529     15.272484
   2.93170     15.608682
   2.88810     15.906917
   2.84451     16.106785
   2.80091     16.376945
   2.75732     16.687566
   2.71372     17.016048
   2.67013     17.172227
   2.62653     16.859790
   2.58294     16.577875
   2.53934     16.323771
   2.49575     16.172407
   2.45215     16.020569
   2.40856     15.856620
   2.36496     15.717089
   2.32137     15.741593
   2.32137     15.741153
   2.29953     15.670706
   2.27770     15.701718
   2.25587     15.807099
   2.23403     15.800287
   2.21220     15.752374
   2.19037     15.677083
   2.16853     15.591099
   2.14670     15.499490
   2.12487     15.408603
   2.10303     15.317816
   2.08120     15.228788
   2.05937     15.141673
   2.03753     15.056771
   2.01570     14.974319
   1.99387     14.894488
   1.97203     14.817360
   1.95020     14.743154
   1.92837     14.671739
   1.90653     14.603392
   1.88470     14.538107
   1.86287     14.475939
   1.84103     14.416928
   1.81920     14.361124
   1.79737     14.308558
   1.77553     14.259262
   1.75370     14.213263
   1.73187     14.170588
   1.71003     14.131251
   1.68820     14.095277
   1.66637     14.062683
   1.64453     14.033482
   1.62270     14.007687
   1.60087     13.985309
   1.57903     13.966358
   1.55720     13.950842
   1.53537     13.938767
   1.51353     13.930138
   1.49170     13.924958
   1.46987     13.923232
   1.46987     13.923232
   1.43218     14.317105
   1.39449     14.620549
   1.35680     14.709708
   1.31911     14.550158
   1.28142     14.874084
   1.24373     15.349628
   1.20604     15.662568
   1.16836     15.699693
   1.13067     15.938137
   1.09298     15.637335
   1.05529     15.473180
   1.01760     15.671885
   0.97991     15.806199
   0.94222     15.819848
   0.90453     15.412262
   0.86684     14.975834
   0.82916     14.539154
   0.79147     14.105087
   0.75378     13.675537
   0.71609     13.252161
   0.67840     12.941510
   0.64071     12.758002
   0.60302     12.584795
   0.56533     12.421902
   0.52764     12.269333
   0.48996     12.127097
   0.45227     11.995199
   0.41458     11.873650
   0.37689     11.762465
   0.33920     11.661672
   0.30151     11.571304
   0.26382     11.491406
   0.22613     11.422031
   0.18844     11.363229
   0.15076     11.315051
   0.11307     11.344578
   0.07538     11.412869
   0.03769     11.454040
   0.00000     11.467836
